sep=;
Timestamp [us];Power measure [W]
736.000000;42.7480
7018.000000;42.7480
26267.000000;42.7480
31913.000000;42.7480
40695.000000;42.7480
46405.000000;42.7480
52413.000000;42.7480
58044.000000;42.7480
64559.000000;42.7480
70158.000000;42.7480
76557.000000;42.7480
83496.000000;42.7480
90638.000000;42.7480
99919.000000;42.7960
106100.000000;42.7960
111957.000000;42.7960
117488.000000;42.7960
123960.000000;42.7960
130538.000000;42.7960
137403.000000;42.7960
142972.000000;42.7960
148554.000000;42.7960
154455.000000;42.7960
161296.000000;42.7960
167837.000000;42.7960
173393.000000;42.7960
179035.000000;42.7960
184616.000000;42.7960
190136.000000;42.7960
195695.000000;42.7960
201220.000000;42.7960
206769.000000;42.7580
213415.000000;42.7580
219709.000000;42.7580
225268.000000;42.7580
230821.000000;42.7580
236429.000000;42.7580
242043.000000;42.7580
247594.000000;42.7580
254159.000000;42.7580
260334.000000;42.7580
265934.000000;42.7580
271501.000000;42.7580
277121.000000;42.7580
282643.000000;42.7580
288290.000000;42.7580
293862.000000;42.7580
300551.000000;42.7580
306086.000000;42.6910
311622.000000;42.6910
317234.000000;42.6910
322800.000000;42.6910
328401.000000;42.6910
333985.000000;42.6910
339879.000000;42.6910
346535.000000;42.6910
352132.000000;42.6910
357761.000000;42.6910
363320.000000;42.6910
368871.000000;42.6910
374772.000000;42.6910
380390.000000;42.6910
387030.000000;42.6910
393272.000000;42.6910
400386.000000;42.6910
406558.000000;42.6910
412755.000000;42.6250
419876.000000;42.6250
425987.000000;42.6250
432960.000000;42.6250
439809.000000;42.6250
445859.000000;42.6250
451879.000000;42.6250
457595.000000;42.6250
463414.000000;42.6250
469366.000000;42.6250
475077.000000;42.6250
481113.000000;42.6250
486868.000000;42.6250
493064.000000;42.6250
498965.000000;42.6250
504932.000000;42.6250
510741.000000;42.6250
516753.000000;48.1010
522514.000000;48.1010
529052.000000;48.1010
534801.000000;48.1010
540751.000000;48.1010
546553.000000;48.1010
553083.000000;48.1010
559293.000000;48.1010
565105.000000;48.1010
571035.000000;48.1010
576825.000000;48.1010
582702.000000;48.1010
588505.000000;48.1010
594528.000000;48.1010
600330.000000;48.1010
606027.000000;48.1010
611903.000000;48.1010
617705.000000;57.8060
623983.000000;57.8060
629748.000000;57.8060
635783.000000;57.8060
641548.000000;57.8060
647512.000000;57.8060
653247.000000;57.8060
659428.000000;57.8060
665304.000000;57.8060
671279.000000;57.8060
677002.000000;57.8060
682744.000000;57.8060
688541.000000;57.8060
694469.000000;57.8060
700546.000000;57.8060
706315.000000;57.8060
712558.000000;57.8060
718772.000000;57.8060
724772.000000;67.9620
730783.000000;67.9620
738604.000000;67.9620
744670.000000;67.9620
750531.000000;67.9620
756320.000000;67.9620
762140.000000;67.9620
767914.000000;67.9620
773838.000000;67.9620
779608.000000;67.9620
785338.000000;67.9620
791284.000000;67.9620
797025.000000;67.9620
803148.000000;67.9620
808878.000000;67.9620
814830.000000;67.9620
820652.000000;67.9620
826496.000000;78.1380
832314.000000;78.1380
838122.000000;78.1380
844224.000000;78.1380
849978.000000;78.1380
856013.000000;78.1380
861807.000000;78.1380
867780.000000;78.1380
873539.000000;78.1380
879664.000000;78.1380
885493.000000;78.1380
891529.000000;78.1380
897402.000000;78.1380
903222.000000;78.1380
909380.000000;78.1380
915161.000000;78.1380
921177.000000;78.1380
927012.000000;88.3540
933024.000000;88.3540
938791.000000;88.3540
945000.000000;88.3540
950792.000000;88.3540
956674.000000;88.3540
962439.000000;88.3540
968269.000000;88.3540
974273.000000;88.3540
980053.000000;88.3540
985934.000000;88.3540
991778.000000;88.3540
997866.000000;88.3540
1003628.000000;88.3540
1009720.000000;88.3540
1015526.000000;88.3540
1021533.000000;88.3540
1027276.000000;88.3540
1033121.000000;98.5170
1039197.000000;98.5170
1045704.000000;98.5170
1051447.000000;98.5170
1057421.000000;98.5170
1063210.000000;98.5170
1069270.000000;98.5170
1075001.000000;98.5170
1081202.000000;98.5170
1087025.000000;98.5170
1093064.000000;98.5170
1098928.000000;98.5170
1104800.000000;98.5170
1110585.000000;98.5170
1116758.000000;98.5170
1122545.000000;98.5170
1128501.000000;98.5170
1134309.000000;108.8070
1140134.000000;108.8070
1146004.000000;108.8070
1151783.000000;108.8070
1157646.000000;108.8070
1163525.000000;108.8070
1169551.000000;108.8070
1175308.000000;108.8070
1181364.000000;108.8070
1187177.000000;108.8070
1193214.000000;108.8070
1199007.000000;108.8070
1204789.000000;108.8070
1210823.000000;108.8070
1216627.000000;108.8070
1222592.000000;108.8070
1228461.000000;108.8070
1234573.000000;108.8070
1240438.000000;119.0030
1246543.000000;119.0030
1252403.000000;119.0030
1258275.000000;119.0030
1263979.000000;119.0030
1269695.000000;119.0030
1275671.000000;119.0030
1281465.000000;119.0030
1287358.000000;119.0030
1293110.000000;119.0030
1299122.000000;119.0030
1304921.000000;119.0030
1311108.000000;119.0030
1316921.000000;119.0030
1322867.000000;119.0030
1328732.000000;119.0030
1334567.000000;119.0030
1340307.000000;129.3920
1346297.000000;129.3920
1352101.000000;129.3920
1357868.000000;129.3920
1363802.000000;129.3920
1369652.000000;129.3920
1375842.000000;129.3920
1381683.000000;129.3920
1387529.000000;129.3920
1393309.000000;129.3920
1399249.000000;129.3920
1405225.000000;129.3920
1410993.000000;129.3920
1416858.000000;129.3920
1422692.000000;129.3920
1428564.000000;129.3920
1434352.000000;129.3920
1440375.000000;129.3920
1446289.000000;139.7290
1452133.000000;139.7290
1457939.000000;139.7290
1463914.000000;139.7290
1469726.000000;139.7290
1475585.000000;139.7290
1481387.000000;139.7290
1487227.000000;139.7290
1492993.000000;139.7290
1498804.000000;139.7290
1504876.000000;139.7290
1510656.000000;139.7290
1516628.000000;139.7290
1522365.000000;139.7290
1528353.000000;139.7290
1534096.000000;139.7290
1540269.000000;139.7290
1546210.000000;144.5450
1552053.000000;144.5450
1557834.000000;144.5450
1563651.000000;144.5450
1569535.000000;144.5450
1575258.000000;144.5450
1581171.000000;144.5450
1586913.000000;144.5450
1592999.000000;144.5450
1598807.000000;144.5450
1604955.000000;144.5450
1610690.000000;144.5450
1616586.000000;144.5450
1622377.000000;144.5450
1628152.000000;144.5450
1634135.000000;144.5450
1639846.000000;144.5450
1645663.000000;144.5450
1651455.000000;145.2370
1657410.000000;145.2370
1663202.000000;145.2370
1669402.000000;145.2370
1675184.000000;145.2370
1681166.000000;145.2370
1686937.000000;145.2370
1692786.000000;145.2370
1698601.000000;145.2370
1704459.000000;145.2370
1710232.000000;145.2370
1715970.000000;145.2370
1722001.000000;145.2370
1727744.000000;145.2370
1733660.000000;145.2370
1739392.000000;145.2370
1745420.000000;145.2370
1751175.000000;145.2370
1757342.000000;145.4340
1763228.000000;145.4340
1769242.000000;145.4340
1775203.000000;145.4340
1781209.000000;145.4340
1787013.000000;145.4340
1793237.000000;145.4340
1798981.000000;145.4340
1805220.000000;145.4340
1811378.000000;145.4340
1817167.000000;145.4340
1823264.000000;145.4340
1829143.000000;145.4340
1834929.000000;145.4340
1840740.000000;145.4340
1846540.000000;145.4340
1852901.000000;145.4340
1858715.000000;145.6040
1865002.000000;145.6040
1870738.000000;145.6040
1876733.000000;145.6040
1882520.000000;145.6040
1888541.000000;145.6040
1894303.000000;145.6040
1900480.000000;145.6040
1906230.000000;145.6040
1911988.000000;145.6040
1917733.000000;145.6040
1923500.000000;145.6040
1929577.000000;145.6040
1935355.000000;145.6040
1941333.000000;145.6040
1947107.000000;145.6040
1953054.000000;145.6040
1958791.000000;145.6040
1964989.000000;145.6760
1970769.000000;145.6760
1976766.000000;145.6760
1982527.000000;145.6760
1988342.000000;145.6760
1994293.000000;145.6760
2000095.000000;145.6760
2005962.000000;145.6760
2011710.000000;145.6760
2017708.000000;145.6760
2023440.000000;145.6760
2029649.000000;145.6760
2035403.000000;145.6760
2041418.000000;145.6760
2047176.000000;145.6760
2053017.000000;145.6760
2058798.000000;145.6760
2064900.000000;145.9150
2070680.000000;145.9150
2076504.000000;145.9150
2082457.000000;145.9150
2088341.000000;145.9150
2094476.000000;145.9150
2100375.000000;145.9150
2106136.000000;145.9150
2111950.000000;145.9150
2117961.000000;145.9150
2123691.000000;145.9150
2129449.000000;145.9150
2135267.000000;145.9150
2141065.000000;145.9150
2146948.000000;145.9150
2152747.000000;145.9150
2158874.000000;145.9150
2164675.000000;145.9150
2170644.000000;145.9180
2176504.000000;145.9180
2182479.000000;145.9180
2188314.000000;145.9180
2194125.000000;145.9180
2199932.000000;145.9180
2205815.000000;145.9180
2211604.000000;145.9180
2217338.000000;145.9180
2223421.000000;145.9180
2229194.000000;145.9180
2237895.000000;145.9180
2243753.000000;145.9180
2249542.000000;145.9180
2255282.000000;145.9180
2261270.000000;145.9180
2267185.000000;145.9180
2272983.000000;146.1220
2278818.000000;146.1220
2284677.000000;146.1220
2290502.000000;146.1220
2296344.000000;146.1220
2302367.000000;146.1220
2308138.000000;146.1220
2313999.000000;146.1220
2319767.000000;146.1220
2325734.000000;146.1220
2331492.000000;146.1220
2337535.000000;146.1220
2343317.000000;146.1220
2349418.000000;146.1220
2355551.000000;146.1220
2361631.000000;146.1220
2367416.000000;146.1220
2373524.000000;146.0930
2379344.000000;146.0930
2385338.000000;146.0930
2391151.000000;146.0930
2397414.000000;146.0930
2403182.000000;146.0930
2409045.000000;146.0930
2414855.000000;146.0930
2420728.000000;146.0930
2426476.000000;146.0930
2432342.000000;146.0930
2438285.000000;146.0930
2444108.000000;146.0930
2449999.000000;146.0930
2455792.000000;146.0930
2461847.000000;146.0930
2467645.000000;146.0930
2473724.000000;146.0930
2479569.000000;146.1110
2485397.000000;146.1110
2491168.000000;146.1110
2496916.000000;146.1110
2502854.000000;146.1110
2509046.000000;146.1110
2514847.000000;146.1110
2520701.000000;146.1110
2526539.000000;146.1110
2532347.000000;146.1110
2538375.000000;146.1110
2544226.000000;146.1110
2550071.000000;146.1110
2555882.000000;146.1110
2561690.000000;146.1110
2567513.000000;146.1110
2573288.000000;146.1110
2579270.000000;146.1110
2585077.000000;146.3140
2591029.000000;146.3140
2596847.000000;146.3140
2602962.000000;146.3140
2608788.000000;146.3140
2614717.000000;146.3140
2620588.000000;146.3140
2626404.000000;146.3140
2632230.000000;146.3140
2638507.000000;146.3140
2644333.000000;146.3140
2650293.000000;146.3140
2656063.000000;146.3140
2661819.000000;146.3140
2667687.000000;146.3140
2673433.000000;146.3140
2679298.000000;146.3140
2685049.000000;146.2530
2691042.000000;146.2530
2696785.000000;146.2530
2702621.000000;146.2530
2708597.000000;146.2530
2714334.000000;146.2530
2720317.000000;146.2530
2726150.000000;146.2530
2732114.000000;146.2530
2737832.000000;146.2530
2743875.000000;146.2530
2749674.000000;146.2530
2755684.000000;146.2530
2761513.000000;146.2530
2767389.000000;146.2530
2773130.000000;146.2530
2778916.000000;146.2530
2784822.000000;146.2530
2790608.000000;146.4240
2796691.000000;146.4240
2802449.000000;146.4240
2808348.000000;146.4240
2814151.000000;146.4240
2820173.000000;146.4240
2825971.000000;146.4240
2832198.000000;146.4240
2838186.000000;146.4240
2844150.000000;146.4240
2849970.000000;146.4240
2855910.000000;146.4240
2861759.000000;146.4240
2867966.000000;146.4240
2873767.000000;146.4240
2879735.000000;146.4240
2885584.000000;146.4240
2891612.000000;146.4560
2897364.000000;146.4560
2903533.000000;146.4560
2909465.000000;146.4560
2915359.000000;146.4560
2922415.000000;146.4560
2928480.000000;146.4560
2934286.000000;146.4560
2940501.000000;146.4560
2946255.000000;146.4560
2952346.000000;146.4560
2958128.000000;146.4560
2964150.000000;146.4560
2969913.000000;146.4560
2976103.000000;146.4560
2981916.000000;146.4560
2987735.000000;146.4560
2993522.000000;146.4810
2999286.000000;146.4810
3005492.000000;146.4810
3011241.000000;146.4810
3017183.000000;146.4810
3022964.000000;146.4810
3028983.000000;146.4810
3034760.000000;146.4810
3040951.000000;146.4810
3046853.000000;146.4810
3052948.000000;146.4810
3058759.000000;146.4810
3064619.000000;146.4810
3070482.000000;146.4810
3076887.000000;146.4810
3082699.000000;146.4810
3088717.000000;146.4810
3094531.000000;146.4810
3100522.000000;146.4490
3106281.000000;146.4490
3112505.000000;146.4490
3118301.000000;146.4490
3124329.000000;146.4490
3130093.000000;146.4490
3135961.000000;146.4490
3141709.000000;146.4490
3147915.000000;146.4490
3153708.000000;146.4490
3159517.000000;146.4490
3165389.000000;146.4490
3171173.000000;146.4490
3177320.000000;146.4490
3183127.000000;146.4490
3188968.000000;146.4490
3194723.000000;146.4490
3200763.000000;146.4120
3206490.000000;146.4120
3212294.000000;146.4120
3218092.000000;146.4120
3223881.000000;146.4120
3229929.000000;146.4120
3235671.000000;146.4120
3241754.000000;146.4120
3247483.000000;146.4120
3253393.000000;146.4120
3259148.000000;146.4120
3265238.000000;146.4120
3271048.000000;146.4120
3276863.000000;146.4120
3282604.000000;146.4120
3288412.000000;146.4120
3294483.000000;146.4120
3300339.000000;146.4120
3306356.000000;146.4830
3312105.000000;146.4830
3318013.000000;146.4830
3323831.000000;146.4830
3329794.000000;146.4830
3335555.000000;146.4830
3341698.000000;146.4830
3347554.000000;146.4830
3353421.000000;146.4830
3359255.000000;146.4830
3365117.000000;146.4830
3371042.000000;146.4830
3376901.000000;146.4830
3382734.000000;146.4830
3388555.000000;146.4830
3394552.000000;146.4830
3400393.000000;146.4830
3406471.000000;146.5140
3412355.000000;146.5140
3418189.000000;146.5140
3423996.000000;146.5140
3429778.000000;146.5140
3435729.000000;146.5140
3441755.000000;146.5140
3447552.000000;146.5140
3453312.000000;146.5140
3459191.000000;146.5140
3465076.000000;146.5140
3471020.000000;146.5140
3476803.000000;146.5140
3482743.000000;146.5140
3488694.000000;146.5140
3494513.000000;146.5140
3500358.000000;146.5140
3506635.000000;146.5140
3512474.000000;146.6210
3518810.000000;146.6210
3524654.000000;146.6210
3530607.000000;146.6210
3536438.000000;146.6210
3542566.000000;146.6210
3548411.000000;146.6210
3554438.000000;146.6210
3560331.000000;146.6210
3566349.000000;146.6210
3572202.000000;146.6210
3578258.000000;146.6210
3583993.000000;146.6210
3590034.000000;146.6210
3595856.000000;146.6210
3601810.000000;146.6210
3607567.000000;146.6210
3613761.000000;146.3440
3619655.000000;146.3440
3625728.000000;146.3440
3631477.000000;146.3440
3637385.000000;146.3440
3643237.000000;146.3440
3649486.000000;146.3440
3655382.000000;146.3440
3661385.000000;146.3440
3667191.000000;146.3440
3672965.000000;146.3440
3678866.000000;146.3440
3684902.000000;146.3440
3690787.000000;146.3440
3696732.000000;146.3440
3702534.000000;146.3440
3708440.000000;146.3440
3714363.000000;146.3440
3720326.000000;146.3970
3726322.000000;146.3970
3732159.000000;146.3970
3738177.000000;146.3970
3744027.000000;146.3970
3750225.000000;146.3970
3756020.000000;146.3970
3762034.000000;146.3970
3767932.000000;146.3970
3773928.000000;146.3970
3779767.000000;146.3970
3785565.000000;146.3970
3791371.000000;146.3970
3797135.000000;146.3970
3803045.000000;146.3970
3808818.000000;146.3970
3814942.000000;146.3970
3820811.000000;146.2640
3826630.000000;146.2640
3832488.000000;146.2640
3838525.000000;146.2640
3844410.000000;146.2640
3850229.000000;146.2640
3856026.000000;146.2640
3861817.000000;146.2640
3867714.000000;146.2640
3873475.000000;146.2640
3879424.000000;146.2640
3885211.000000;146.2640
3891254.000000;146.2640
3897049.000000;146.2640
3903144.000000;146.2640
3908941.000000;146.2640
3915077.000000;146.2640
3920920.000000;146.2640
3926680.000000;146.2700
3932502.000000;146.2700
3938585.000000;146.2700
3944435.000000;146.2700
3950598.000000;146.2700
3956376.000000;146.2700
3962461.000000;146.2700
3968370.000000;146.2700
3974403.000000;146.2700
3980203.000000;146.2700
3986462.000000;146.2700
3992400.000000;146.2700
3998178.000000;146.2700
4003997.000000;146.2700
4009834.000000;146.2700
4015793.000000;146.2700
4021554.000000;146.2700
4027420.000000;146.3960
4033209.000000;146.3960
4039210.000000;146.3960
4045013.000000;146.3960
4051166.000000;146.3960
4057097.000000;146.3960
4062934.000000;146.3960
4068882.000000;146.3960
4074697.000000;146.3960
4080617.000000;146.3960
4086822.000000;146.3960
4092713.000000;146.3960
4098676.000000;146.3960
4104532.000000;146.3960
4110550.000000;146.3960
4116407.000000;146.3960
4122567.000000;146.3960
4128399.000000;146.3170
4134346.000000;146.3170
4140334.000000;146.3170
4146318.000000;146.3170
4152248.000000;146.3170
4158133.000000;146.3170
4163900.000000;146.3170
4169967.000000;146.3170
4175781.000000;146.3170
4181945.000000;146.3170
4187760.000000;146.3170
4193758.000000;146.3170
4199521.000000;146.3170
4205500.000000;146.3170
4211302.000000;146.3170
4217107.000000;146.3170
4222887.000000;146.3170
4228740.000000;146.3170
4234702.000000;146.3510
4240555.000000;146.3510
4246566.000000;146.3510
4252373.000000;146.3510
4258321.000000;146.3510
4264094.000000;146.3510
4270131.000000;146.3510
4276014.000000;146.3510
4281842.000000;146.3510
4287713.000000;146.3510
4293552.000000;146.3510
4299363.000000;146.3510
4305299.000000;146.3510
4311184.000000;146.3510
4316981.000000;146.3510
4322846.000000;146.3510
4328699.000000;146.3510
4334704.000000;146.1900
4340553.000000;146.1900
4346715.000000;146.1900
4352669.000000;146.1900
4358540.000000;146.1900
4364438.000000;146.1900
4370505.000000;146.1900
4376361.000000;146.1900
4382600.000000;146.1900
4388473.000000;146.1900
4394435.000000;146.1900
4400274.000000;146.1900
4406412.000000;146.1900
4412283.000000;146.1900
4418401.000000;146.1900
4424270.000000;146.1900
4430091.000000;146.1900
4435987.000000;146.1900
4441936.000000;146.3170
4447751.000000;146.3170
4453902.000000;146.3170
4459698.000000;146.3170
4465738.000000;146.3170
4471601.000000;146.3170
4477694.000000;146.3170
4483560.000000;146.3170
4489771.000000;146.3170
4495665.000000;146.3170
4501538.000000;146.3170
4507436.000000;146.3170
4513209.000000;146.3170
4519156.000000;146.3170
4525667.000000;146.3170
4531814.000000;146.3170
4537865.000000;146.3170
4543665.000000;146.1770
4549656.000000;146.1770
4555806.000000;146.1770
4561803.000000;146.1770
4567657.000000;146.1770
4573569.000000;146.1770
4579366.000000;146.1770
4585355.000000;146.1770
4591144.000000;146.1770
4597294.000000;146.1770
4603136.000000;146.1770
4609093.000000;146.1770
4614868.000000;146.1770
4620860.000000;146.1770
4626642.000000;146.1770
4632950.000000;146.1770
4638785.000000;146.1770
4644579.000000;146.3460
4650349.000000;146.3460
4656120.000000;146.3460
4662274.000000;146.3460
4668122.000000;146.3460
4674201.000000;146.3460
4680028.000000;146.3460
4686085.000000;146.3460
4691881.000000;146.3460
4698037.000000;146.3460
4703911.000000;146.3460
4709727.000000;146.3460
4715569.000000;146.3460
4721784.000000;146.3460
4727574.000000;146.3460
4733345.000000;146.3460
4739308.000000;146.3460
4745354.000000;146.3460
4751279.000000;146.3270
4757100.000000;146.3270
4763189.000000;146.3270
4769078.000000;146.3270
4774950.000000;146.3270
4780798.000000;146.3270
4786786.000000;146.3270
4792624.000000;146.3270
4798466.000000;146.3270
4804269.000000;146.3270
4810039.000000;146.3270
4816062.000000;146.3270
4821912.000000;146.3270
4828097.000000;146.3270
4834015.000000;146.3270
4839786.000000;146.3270
4845639.000000;146.3270
4851802.000000;146.2380
4857612.000000;146.2380
4863497.000000;146.2380
4869419.000000;146.2380
4875213.000000;146.2380
4881014.000000;146.2380
4887000.000000;146.2380
4892853.000000;146.2380
4898855.000000;146.2380
4904677.000000;146.2380
4910566.000000;146.2380
4916523.000000;146.2380
4922323.000000;146.2380
4928292.000000;146.2380
4934060.000000;146.2380
4939785.000000;146.2380
4945595.000000;146.2380
4951515.000000;146.2380
4957295.000000;146.3720
4963171.000000;146.3720
4968983.000000;146.3720
4974747.000000;146.3720
4980782.000000;146.3720
4986803.000000;146.3720
4992783.000000;146.3720
4998565.000000;146.3720
5004506.000000;146.3720
5010489.000000;146.3720
5016308.000000;146.3720
5022170.000000;146.3720
5028394.000000;146.3720
