sep=;
Timestamp [us];Power measure [W]
214.000000;43.4150
5927.000000;43.4150
11770.000000;43.4150
30132.000000;43.4570
35444.000000;43.4570
40921.000000;43.4570
48190.000000;43.4570
65071.000000;43.4570
70269.000000;43.4570
75554.000000;43.4570
81097.000000;43.4570
86401.000000;43.4570
91701.000000;43.4570
96992.000000;43.4570
102331.000000;43.4570
110524.000000;43.4570
115812.000000;43.4570
121039.000000;43.4570
126437.000000;43.4570
131645.000000;43.6350
136852.000000;43.6350
142303.000000;43.6350
147808.000000;43.6350
154054.000000;43.6350
159254.000000;43.6350
164611.000000;43.6350
169800.000000;43.6350
174980.000000;43.6350
180156.000000;43.6350
185334.000000;43.6350
190509.000000;43.6350
195750.000000;43.6350
200913.000000;43.6350
206095.000000;43.6350
211326.000000;43.6350
216513.000000;43.6350
221717.000000;43.6350
226902.000000;43.6350
232120.000000;43.6350
237330.000000;43.6850
242507.000000;43.6850
248038.000000;43.6850
253248.000000;43.6850
258432.000000;43.6850
263629.000000;43.6850
268854.000000;43.6850
274096.000000;43.6850
279286.000000;43.6850
284474.000000;43.6850
289899.000000;43.6850
295401.000000;43.6850
300613.000000;43.6850
305818.000000;43.6850
311036.000000;43.6850
316229.000000;43.6850
321405.000000;43.6850
326640.000000;43.6850
332035.000000;43.6850
337414.000000;43.6850
342618.000000;43.6980
347781.000000;43.6980
352983.000000;43.6980
358183.000000;43.6980
363390.000000;43.6980
368573.000000;43.6980
373955.000000;43.6980
379163.000000;43.6980
384354.000000;43.6980
389531.000000;43.6980
394710.000000;43.6980
399997.000000;43.6980
405281.000000;43.6980
410585.000000;43.6980
416060.000000;43.6980
421540.000000;43.6980
427023.000000;43.6980
432407.000000;43.6980
437662.000000;43.6980
443095.000000;43.7070
448688.000000;43.7070
454108.000000;43.7070
459505.000000;43.7070
464825.000000;43.7070
470249.000000;43.7070
475463.000000;43.7070
480681.000000;43.7070
485903.000000;43.7070
491129.000000;43.7070
496431.000000;43.7070
501662.000000;43.7070
506937.000000;43.7070
512180.000000;43.7070
517464.000000;43.7070
522714.000000;43.7070
528030.000000;43.7070
533379.000000;43.7070
538974.000000;43.7070
544206.000000;51.1800
549483.000000;51.1800
554705.000000;51.1800
559965.000000;51.1800
565247.000000;51.1800
570623.000000;51.1800
575848.000000;51.1800
581095.000000;51.1800
586320.000000;51.1800
591542.000000;51.1800
596981.000000;51.1800
602207.000000;51.1800
607433.000000;51.1800
612651.000000;51.1800
617876.000000;51.1800
623119.000000;51.1800
628424.000000;51.1800
633880.000000;51.1800
639194.000000;51.1800
644400.000000;51.1800
649621.000000;61.4010
655016.000000;61.4010
660337.000000;61.4010
667984.000000;61.4010
673206.000000;61.4010
678649.000000;61.4010
683872.000000;61.4010
689099.000000;61.4010
694380.000000;61.4010
699768.000000;61.4010
705023.000000;61.4010
710246.000000;61.4010
715465.000000;61.4010
720714.000000;61.4010
725916.000000;61.4010
731283.000000;61.4010
736525.000000;61.4010
741792.000000;61.4010
747198.000000;61.4010
752434.000000;71.0650
757665.000000;71.0650
762895.000000;71.0650
768282.000000;71.0650
773506.000000;71.0650
778740.000000;71.0650
784043.000000;71.0650
789346.000000;71.0650
794559.000000;71.0650
799860.000000;71.0650
805107.000000;71.0650
810467.000000;71.0650
815678.000000;71.0650
820892.000000;71.0650
826191.000000;71.0650
831438.000000;71.0650
836700.000000;71.0650
841963.000000;71.0650
847344.000000;71.0650
852578.000000;71.0650
857837.000000;81.3720
863081.000000;81.3720
868351.000000;81.3720
874970.000000;81.3720
880192.000000;81.3720
885646.000000;81.3720
890878.000000;81.3720
896091.000000;81.3720
901351.000000;81.3720
906621.000000;81.3720
911870.000000;81.3720
917163.000000;81.3720
922385.000000;81.3720
927612.000000;81.3720
932833.000000;81.3720
938273.000000;81.3720
943553.000000;81.3720
948805.000000;81.3720
954029.000000;81.3720
959257.000000;91.6600
964549.000000;91.6600
969785.000000;91.6600
975013.000000;91.6600
980260.000000;91.6600
985692.000000;91.6600
990924.000000;91.6600
996214.000000;91.6600
1001472.000000;91.6600
1006809.000000;91.6600
1012026.000000;91.6600
1017263.000000;91.6600
1022529.000000;91.6600
1027772.000000;91.6600
1033086.000000;91.6600
1038448.000000;91.6600
1043697.000000;91.6600
1048920.000000;91.6600
1054152.000000;91.6600
1059398.000000;91.6600
1064760.000000;101.9280
1069994.000000;101.9280
1075232.000000;101.9280
1080456.000000;101.9280
1085675.000000;101.9280
1090933.000000;101.9280
1096211.000000;101.9280
1101462.000000;101.9280
1106709.000000;101.9280
1111940.000000;101.9280
1117126.000000;101.9280
1122507.000000;101.9280
1127734.000000;101.9280
1132971.000000;101.9280
1138258.000000;101.9280
1143485.000000;101.9280
1148823.000000;101.9280
1154054.000000;101.9280
1159326.000000;101.9280
1164590.000000;101.9280
1169840.000000;112.1070
1175112.000000;112.1070
1180344.000000;112.1070
1185642.000000;112.1070
1190872.000000;112.1070
1196145.000000;112.1070
1201581.000000;112.1070
1206840.000000;112.1070
1212094.000000;112.1070
1217347.000000;112.1070
1222632.000000;112.1070
1228010.000000;112.1070
1233243.000000;112.1070
1238470.000000;112.1070
1243704.000000;112.1070
1249214.000000;112.1070
1254466.000000;112.1070
1259698.000000;112.1070
1264926.000000;112.1070
1270176.000000;122.5250
1275411.000000;122.5250
1280767.000000;122.5250
1285998.000000;122.5250
1291605.000000;122.5250
1296839.000000;122.5250
1302149.000000;122.5250
1307394.000000;122.5250
1312631.000000;122.5250
1317866.000000;122.5250
1323091.000000;122.5250
1328335.000000;122.5250
1333548.000000;122.5250
1338767.000000;122.5250
1344034.000000;122.5250
1349257.000000;122.5250
1354661.000000;122.5250
1359931.000000;122.5250
1365155.000000;122.5250
1370352.000000;122.5250
1375582.000000;132.7960
1380912.000000;132.7960
1386144.000000;132.7960
1391386.000000;132.7960
1396620.000000;132.7960
1401865.000000;132.7960
1407096.000000;132.7960
1412621.000000;132.7960
1417874.000000;132.7960
1423469.000000;132.7960
1428889.000000;132.7960
1434152.000000;132.7960
1439414.000000;132.7960
1445123.000000;132.7960
1450380.000000;132.7960
1455970.000000;132.7960
1461239.000000;132.7960
1466561.000000;132.7960
1471810.000000;132.7960
1477070.000000;143.1610
1482303.000000;143.1610
1487574.000000;143.1610
1493026.000000;143.1610
1498251.000000;143.1610
1503575.000000;143.1610
1508833.000000;143.1610
1514304.000000;143.1610
1519578.000000;143.1610
1524838.000000;143.1610
1530077.000000;143.1610
1535387.000000;143.1610
1540635.000000;143.1610
1545872.000000;143.1610
1551110.000000;143.1610
1556332.000000;143.1610
1561605.000000;143.1610
1567006.000000;143.1610
1572232.000000;143.1610
1577462.000000;143.1610
1582691.000000;146.0920
1587976.000000;146.0920
1593483.000000;146.0920
1598711.000000;146.0920
1603947.000000;146.0920
1609217.000000;146.0920
1614447.000000;146.0920
1619722.000000;146.0920
1624938.000000;146.0920
1630120.000000;146.0920
1635369.000000;146.0920
1640646.000000;146.0920
1646037.000000;146.0920
1651322.000000;146.0920
1656555.000000;146.0920
1661803.000000;146.0920
1667203.000000;146.0920
1672449.000000;146.0920
1677711.000000;146.0920
1682937.000000;146.1940
1688391.000000;146.1940
1693673.000000;146.1940
1698932.000000;146.1940
1704179.000000;146.1940
1709559.000000;146.1940
1714796.000000;146.1940
1720059.000000;146.1940
1725355.000000;146.1940
1730971.000000;146.1940
1736208.000000;146.1940
1741482.000000;146.1940
1746722.000000;146.1940
1752129.000000;146.1940
1757374.000000;146.1940
1762601.000000;146.1940
1767844.000000;146.1940
1773288.000000;146.1940
1778562.000000;146.1940
1783777.000000;146.1940
1789177.000000;146.7010
1794403.000000;146.7010
1799661.000000;146.7010
1804905.000000;146.7010
1810230.000000;146.7010
1815467.000000;146.7010
1820709.000000;146.7010
1825951.000000;146.7010
1831526.000000;146.7010
1836784.000000;146.7010
1842020.000000;146.7010
1847252.000000;146.7010
1852760.000000;146.7010
1858024.000000;146.7010
1863326.000000;146.7010
1868579.000000;146.7010
1873849.000000;146.7010
1879241.000000;146.7010
1884517.000000;146.7010
1889722.000000;146.8100
1895014.000000;146.8100
1900208.000000;146.8100
1905504.000000;146.8100
1910690.000000;146.8100
1915978.000000;146.8100
1921204.000000;146.8100
1926732.000000;146.8100
1931984.000000;146.8100
1937247.000000;146.8100
1942461.000000;146.8100
1947707.000000;146.8100
1953183.000000;146.8100
1958426.000000;146.8100
1963712.000000;146.8100
1968967.000000;146.8100
1974311.000000;146.8100
1979587.000000;146.8100
1984827.000000;146.8100
1990110.000000;146.8100
1995399.000000;146.8490
2000809.000000;146.8490
2006079.000000;146.8490
2011700.000000;146.8490
2017321.000000;146.8490
2022714.000000;146.8490
2027961.000000;146.8490
2033235.000000;146.8490
2038469.000000;146.8490
2043917.000000;146.8490
2049167.000000;146.8490
2054392.000000;146.8490
2059625.000000;146.8490
2064861.000000;146.8490
2070190.000000;146.8490
2075455.000000;146.8490
2081104.000000;146.8490
2086399.000000;146.8490
2091884.000000;146.8490
2097126.000000;146.9770
2102362.000000;146.9770
2107608.000000;146.9770
2113141.000000;146.9770
2118420.000000;146.9770
2123732.000000;146.9770
2129045.000000;146.9770
2134603.000000;146.9770
2139844.000000;146.9770
2145104.000000;146.9770
2150399.000000;146.9770
2155701.000000;146.9770
2161322.000000;146.9770
2166549.000000;146.9770
2171792.000000;146.9770
2177088.000000;146.9770
2182435.000000;146.9770
2187674.000000;146.9770
2192914.000000;146.9770
2198149.000000;147.0130
2203379.000000;147.0130
2208704.000000;147.0130
2213961.000000;147.0130
2219334.000000;147.0130
2224588.000000;147.0130
2229833.000000;147.0130
2235321.000000;147.0130
2240560.000000;147.0130
2245831.000000;147.0130
2251125.000000;147.0130
2256614.000000;147.0130
2261857.000000;147.0130
2267120.000000;147.0130
2272358.000000;147.0130
2277868.000000;147.0130
2283176.000000;147.0130
2288417.000000;147.0130
2293825.000000;147.0130
2299069.000000;147.0130
2304353.000000;146.9660
2309615.000000;146.9660
2314817.000000;146.9660
2320042.000000;146.9660
2325322.000000;146.9660
2330674.000000;146.9660
2335911.000000;146.9660
2341131.000000;146.9660
2346349.000000;146.9660
2351586.000000;146.9660
2356895.000000;146.9660
2362180.000000;146.9660
2367473.000000;146.9660
2372934.000000;146.9660
2378288.000000;146.9660
2383527.000000;146.9660
2388839.000000;146.9660
2394056.000000;146.9660
2399273.000000;146.9660
2404554.000000;147.0360
2409862.000000;147.0360
2415138.000000;147.0360
2420383.000000;147.0360
2425660.000000;147.0360
2431133.000000;147.0360
2436386.000000;147.0360
2441644.000000;147.0360
2446871.000000;147.0360
2452276.000000;147.0360
2457560.000000;147.0360
2462858.000000;147.0360
2468270.000000;147.0360
2473506.000000;147.0360
2478747.000000;147.0360
2483983.000000;147.0360
2489412.000000;147.0360
2494654.000000;147.0360
2499887.000000;147.0360
2505129.000000;147.0360
2510444.000000;146.8470
2515735.000000;146.8470
2521019.000000;146.8470
2526264.000000;146.8470
2531481.000000;146.8470
2536710.000000;146.8470
2542170.000000;146.8470
2547437.000000;146.8470
2553101.000000;146.8470
2558346.000000;146.8470
2563965.000000;146.8470
2569212.000000;146.8470
2574488.000000;146.8470
2579818.000000;146.8470
2585446.000000;146.8470
2590695.000000;146.8470
2595979.000000;146.8470
2601226.000000;146.8470
2606414.000000;146.8470
2611679.000000;146.9660
2616906.000000;146.9660
2622171.000000;146.9660
2627407.000000;146.9660
2632904.000000;146.9660
2638152.000000;146.9660
2643434.000000;146.9660
2648677.000000;146.9660
2654133.000000;146.9660
2659431.000000;146.9660
2664682.000000;146.9660
2669933.000000;146.9660
2675179.000000;146.9660
2680883.000000;146.9660
2686181.000000;146.9660
2691479.000000;146.9660
2696726.000000;146.9660
2702144.000000;146.9660
2707377.000000;146.9660
2712666.000000;146.9660
2717939.000000;146.9630
2723436.000000;146.9630
2728721.000000;146.9630
2733931.000000;146.9630
2739256.000000;146.9630
2744562.000000;146.9630
2749803.000000;146.9630
2755126.000000;146.9630
2760462.000000;146.9630
2765700.000000;146.9630
2770944.000000;146.9630
2776241.000000;146.9630
2781631.000000;146.9630
2786874.000000;146.9630
2792113.000000;146.9630
2797393.000000;146.9630
2802691.000000;146.9630
2808020.000000;146.9630
2813270.000000;146.9630
2818507.000000;147.0150
2823739.000000;147.0150
2829039.000000;147.0150
2834313.000000;147.0150
2839672.000000;147.0150
2844882.000000;147.0150
2850174.000000;147.0150
2855473.000000;147.0150
2861007.000000;147.0150
2866251.000000;147.0150
2871492.000000;147.0150
2876771.000000;147.0150
2882111.000000;147.0150
2887390.000000;147.0150
2892646.000000;147.0150
2897912.000000;147.0150
2903249.000000;147.0150
2908522.000000;147.0150
2913924.000000;147.0150
2919167.000000;147.0150
2924414.000000;147.0060
2929729.000000;147.0060
2935192.000000;147.0060
2940425.000000;147.0060
2945702.000000;147.0060
2950978.000000;147.0060
2956304.000000;147.0060
2961555.000000;147.0060
2966838.000000;147.0060
2972228.000000;147.0060
2977445.000000;147.0060
2982722.000000;147.0060
2988127.000000;147.0060
2993372.000000;147.0060
2999000.000000;147.0060
3004502.000000;147.0060
3009779.000000;147.0060
3015055.000000;147.0060
3020334.000000;147.0060
3025778.000000;147.0180
3031020.000000;147.0180
3036265.000000;147.0180
3041525.000000;147.0180
3047119.000000;147.0180
3052375.000000;147.0180
3057608.000000;147.0180
3062860.000000;147.0180
3068119.000000;147.0180
3073439.000000;147.0180
3078790.000000;147.0180
3084069.000000;147.0180
3089338.000000;147.0180
3094559.000000;147.0180
3099869.000000;147.0180
3105127.000000;147.0180
3110397.000000;147.0180
3115661.000000;147.0180
3120909.000000;147.0180
3126213.000000;147.0180
3131423.000000;146.8460
3136644.000000;146.8460
3141898.000000;146.8460
3147148.000000;146.8460
3152475.000000;146.8460
3157721.000000;146.8460
3162994.000000;146.8460
3168237.000000;146.8460
3173486.000000;146.8460
3178915.000000;146.8460
3184172.000000;146.8460
3189419.000000;146.8460
3194666.000000;146.8460
3199990.000000;146.8460
3205254.000000;146.8460
3210526.000000;146.8460
3215790.000000;146.8460
3221086.000000;146.8460
3226433.000000;146.8460
3231712.000000;146.8620
3236979.000000;146.8620
3242228.000000;146.8620
3247494.000000;146.8620
3252906.000000;146.8620
3258154.000000;146.8620
3263485.000000;146.8620
3268789.000000;146.8620
3274083.000000;146.8620
3279344.000000;146.8620
3284639.000000;146.8620
3289883.000000;146.8620
3295131.000000;146.8620
3300381.000000;146.8620
3305775.000000;146.8620
3311043.000000;146.8620
3316288.000000;146.8620
3321567.000000;146.8620
3327027.000000;146.8620
3332305.000000;146.8620
3337568.000000;146.7270
3342853.000000;146.7270
3348482.000000;146.7270
3353846.000000;146.7270
3359129.000000;146.7270
3364379.000000;146.7270
3369701.000000;146.7270
3374948.000000;146.7270
3380174.000000;146.7270
3385461.000000;146.7270
3390705.000000;146.7270
3396178.000000;146.7270
3401446.000000;146.7270
3406694.000000;146.7270
3411973.000000;146.7270
3417237.000000;146.7270
3422508.000000;146.7270
3427789.000000;146.7270
3433082.000000;146.7270
3438314.000000;146.7890
3443571.000000;146.7890
3449061.000000;146.7890
3454371.000000;146.7890
3459623.000000;146.7890
3464909.000000;146.7890
3470533.000000;146.7890
3475787.000000;146.7890
3481083.000000;146.7890
3486367.000000;146.7890
3491643.000000;146.7890
3496888.000000;146.7890
3502148.000000;146.7890
3507421.000000;146.7890
3512671.000000;146.7890
3518124.000000;146.7890
3523402.000000;146.7890
3528643.000000;146.7890
3533934.000000;146.7890
3539336.000000;146.7890
3544584.000000;146.8620
3549832.000000;146.8620
3555121.000000;146.8620
3560503.000000;146.8620
3565830.000000;146.8620
3571097.000000;146.8620
3576546.000000;146.8620
3581793.000000;146.8620
3587045.000000;146.8620
3592338.000000;146.8620
3597599.000000;146.8620
3602902.000000;146.8620
3608170.000000;146.8620
3613455.000000;146.8620
3618785.000000;146.8620
3624071.000000;146.8620
3629378.000000;146.8620
3634664.000000;146.8620
3640115.000000;146.8620
3645579.000000;146.7210
3650867.000000;146.7210
3656148.000000;146.7210
3661427.000000;146.7210
3666978.000000;146.7210
3672233.000000;146.7210
3677557.000000;146.7210
3682825.000000;146.7210
3688460.000000;146.7210
3693981.000000;146.7210
3699272.000000;146.7210
3704594.000000;146.7210
3709848.000000;146.7210
3715099.000000;146.7210
3720383.000000;146.7210
3725674.000000;146.7210
3730967.000000;146.7210
3736325.000000;146.7210
3741602.000000;146.7210
3746902.000000;146.7210
3752149.000000;146.7390
3757454.000000;146.7390
3762729.000000;146.7390
3768187.000000;146.7390
3773445.000000;146.7390
3778702.000000;146.7390
3783975.000000;146.7390
3789329.000000;146.7390
3794707.000000;146.7390
3799972.000000;146.7390
3805239.000000;146.7390
3810498.000000;146.7390
3815754.000000;146.7390
3821042.000000;146.7390
3826353.000000;146.7390
3831604.000000;146.7390
3836934.000000;146.7390
3842187.000000;146.7390
3847653.000000;146.7390
3852905.000000;146.7350
3858159.000000;146.7350
3863432.000000;146.7350
3868694.000000;146.7350
3873962.000000;146.7350
3879248.000000;146.7350
3884505.000000;146.7350
3889760.000000;146.7350
3895044.000000;146.7350
3900513.000000;146.7350
3905770.000000;146.7350
3911025.000000;146.7350
3916280.000000;146.7350
3921750.000000;146.7350
3927037.000000;146.7350
3932291.000000;146.7350
3937636.000000;146.7350
3942893.000000;146.7350
3948140.000000;146.7350
3953451.000000;146.7350
3958828.000000;146.7930
3964044.000000;146.7930
3969348.000000;146.7930
3974608.000000;146.7930
3980093.000000;146.7930
3985395.000000;146.7930
3990678.000000;146.7930
3995939.000000;146.7930
4001148.000000;146.7930
4006383.000000;146.7930
4011612.000000;146.7930
4016856.000000;146.7930
4022149.000000;146.7930
4027420.000000;146.7930
4032690.000000;146.7930
4037945.000000;146.7930
4043310.000000;146.7930
4048563.000000;146.7930
4053815.000000;146.7930
4059103.000000;146.8960
4064563.000000;146.8960
4069856.000000;146.8960
4075173.000000;146.8960
4080435.000000;146.8960
4085738.000000;146.8960
4091013.000000;146.8960
4096298.000000;146.8960
4101550.000000;146.8960
4106830.000000;146.8960
4112351.000000;146.8960
4117607.000000;146.8960
4122863.000000;146.8960
4128107.000000;146.8960
4133596.000000;146.8960
4138917.000000;146.8960
4144176.000000;146.8960
4149443.000000;146.8960
4154827.000000;146.8960
4160140.000000;146.8960
4165429.000000;147.0070
4170831.000000;147.0070
4176123.000000;147.0070
4181377.000000;147.0070
4186780.000000;147.0070
4192102.000000;147.0070
4197359.000000;147.0070
4202614.000000;147.0070
4208086.000000;147.0070
4213354.000000;147.0070
4218584.000000;147.0070
4223874.000000;147.0070
4229541.000000;147.0070
4234800.000000;147.0070
4240060.000000;147.0070
4245319.000000;147.0070
4250599.000000;147.0070
4255874.000000;147.0070
4261114.000000;147.0070
4266364.000000;147.1420
4271606.000000;147.1420
4276865.000000;147.1420
4282149.000000;147.1420
4287423.000000;147.1420
4292679.000000;147.1420
4297940.000000;147.1420
4303756.000000;147.1420
4309412.000000;147.1420
4314675.000000;147.1420
4320346.000000;147.1420
4325659.000000;147.1420
4330944.000000;147.1420
4336222.000000;147.1420
4341454.000000;147.1420
4346770.000000;147.1420
4352014.000000;147.1420
4357291.000000;147.1420
4362611.000000;147.1420
4367878.000000;147.2310
4373254.000000;147.2310
4378489.000000;147.2310
4383733.000000;147.2310
4389062.000000;147.2310
4394345.000000;147.2310
4399625.000000;147.2310
4404821.000000;147.2310
4410143.000000;147.2310
4415405.000000;147.2310
4420902.000000;147.2310
4426167.000000;147.2310
4431461.000000;147.2310
4436752.000000;147.2310
4442075.000000;147.2310
4447314.000000;147.2310
4452605.000000;147.2310
4457864.000000;147.2310
4463194.000000;147.2310
4468471.000000;147.2310
4473748.000000;147.3000
4479025.000000;147.3000
4484286.000000;147.3000
4489539.000000;147.3000
4495007.000000;147.3000
4500266.000000;147.3000
4505527.000000;147.3000
4510818.000000;147.3000
4516357.000000;147.3000
4521700.000000;147.3000
